16/03/2023	09:34
Amplitude: 1.00 V
Freq  (Hz) 	 Gain (dB)  	 Phase (deg)
  5.000             -9.632            -95.581
  6.295             -7.668            -96.652
  7.924             -5.710            -97.957
  9.976             -3.762            -99.613
 12.559             -1.842            -101.639
 15.811              0.054            -104.189
 19.905              1.902            -107.293
 25.059              3.675            -111.030
 31.548              5.360            -115.466
 39.716              6.912            -120.592
 50.000              8.300            -126.335
 62.946              9.494            -132.408
 79.245             10.474            -138.678
 99.763             11.239            -144.764
125.594             11.809            -150.568
158.114             12.222            -155.699
199.054             12.513            -160.141
250.594             12.718            -163.592
315.479             12.849            -166.874
397.164             12.938            -169.430
500.000             12.997            -171.765
629.463             13.038            -173.256
792.447             13.065            -174.664
997.631             13.082            -175.776
1255.943             13.092            -176.680
1581.139             13.099            -177.443
1990.536             13.109            -178.047
2505.936             13.107            181.417
3154.787             13.109            180.961
3971.641             13.106            180.616
5000.000             13.131            179.707
6294.627             13.111            179.803
7924.466             13.105            179.483
9976.312             13.110            179.020
12559.432             13.110            178.570
15811.388             13.108            178.023
19905.359             13.106            177.365
